Sample,Time(S),CH1(V),CH2(V)
0,-0.0016,0.068312,-1.56055
1,-0.001599,0.068312,-1.56055
2,-0.001598,0.068312,-1.55903
3,-0.001597,0.068312,-1.55751
4,-0.001596,0.068312,-1.556
5,-0.001595,0.068312,-1.55448
6,-0.001594,0.068312,-1.55296
7,-0.001593,0.068312,-1.55144
8,-0.001592,0.0652759,-1.55144
9,-0.001591,0.0637579,-1.54841
10,-0.00159,0.0652759,-1.54689
11,-0.001589,0.0637579,-1.54233
12,-0.001588,0.0667939,-1.54233
13,-0.001587,0.0667939,-1.53778
14,-0.001586,0.0637579,-1.53626
15,-0.001585,0.0607218,-1.53322
16,-0.001584,0.0607218,-1.53322
17,-0.001583,0.0607218,-1.53019
18,-0.001582,0.0607218,-1.52715
19,-0.001581,0.0622398,-1.52412
20,-0.00158,0.0622398,-1.52108
21,-0.001579,0.0622398,-1.51653
22,-0.001578,0.0622398,-1.51501
23,-0.001577,0.0622398,-1.51197
24,-0.001576,0.0622398,-1.50894
25,-0.001575,0.0622398,-1.50742
26,-0.001574,0.0576857,-1.50438
27,-0.001573,0.0592037,-1.50135
28,-0.001572,0.0592037,-1.49831
29,-0.001571,0.0561676,-1.49376
30,-0.00157,0.0592037,-1.49072
31,-0.001569,0.0546496,-1.48768
32,-0.001568,0.0546496,-1.48617
33,-0.001567,0.0561676,-1.48009
34,-0.001566,0.0561676,-1.47706
35,-0.001565,0.0561676,-1.47402
36,-0.001564,0.0561676,-1.46947
37,-0.001563,0.0561676,-1.46491
38,-0.001562,0.0561676,-1.46188
39,-0.001561,0.0531316,-1.45884
40,-0.00156,0.0546496,-1.4558
41,-0.001559,0.0500955,-1.45277
42,-0.001558,0.0516135,-1.44821
43,-0.001557,0.0516135,-1.44214
44,-0.001556,0.0516135,-1.44062
45,-0.001555,0.0516135,-1.43455
46,-0.001554,0.0485774,-1.43152
47,-0.001553,0.0485774,-1.42544
48,-0.001552,0.0500955,-1.42089
49,-0.001551,0.0470594,-1.41785
50,-0.00155,0.0485774,-1.41178
51,-0.001549,0.0485774,-1.40723
52,-0.001548,0.0485774,-1.40571
53,-0.001547,0.0485774,-1.39812
54,-0.001546,0.0485774,-1.39356
55,-0.001545,0.0485774,-1.39053
56,-0.001544,0.0425052,-1.38446
57,-0.001543,0.0440233,-1.38142
58,-0.001542,0.0440233,-1.37535
59,-0.001541,0.0440233,-1.37079
60,-0.00154,0.0409872,-1.36624
61,-0.001539,0.0409872,-1.36017
62,-0.001538,0.0409872,-1.35258
63,-0.001537,0.0394692,-1.34954
64,-0.001536,0.0379511,-1.34347
65,-0.001535,0.0409872,-1.3374
66,-0.001534,0.0409872,-1.33284
67,-0.001533,0.0409872,-1.32677
68,-0.001532,0.0409872,-1.3207
69,-0.001531,0.034915,-1.31766
70,-0.00153,0.0364331,-1.31007
71,-0.001529,0.034915,-1.304
72,-0.001528,0.0379511,-1.30096
73,-0.001527,0.033397,-1.29337
74,-0.001526,0.033397,-1.28578
75,-0.001525,0.033397,-1.28123
76,-0.001524,0.033397,-1.27516
77,-0.001523,0.033397,-1.26757
78,-0.001522,0.033397,-1.26301
79,-0.001521,0.033397,-1.25694
80,-0.00152,0.033397,-1.25087
81,-0.001519,0.033397,-1.2448
82,-0.001518,0.0303609,-1.23721
83,-0.001517,0.0303609,-1.23417
84,-0.001516,0.0273248,-1.22506
85,-0.001515,0.0288428,-1.21747
86,-0.001514,0.0273248,-1.21292
87,-0.001513,0.0273248,-1.20533
88,-0.001512,0.0258068,-1.19925
89,-0.001511,0.0258068,-1.19166
90,-0.00151,0.0273248,-1.18559
91,-0.001509,0.0258068,-1.17952
92,-0.001508,0.0273248,-1.17193
93,-0.001507,0.0242887,-1.16586
94,-0.001506,0.0242887,-1.15827
95,-0.001505,0.0242887,-1.1522
96,-0.001504,0.0242887,-1.14461
97,-0.001503,0.0242887,-1.13702
98,-0.001502,0.0197346,-1.13094
99,-0.001501,0.0197346,-1.12335
100,-0.0015,0.0182165,-1.11424
101,-0.001499,0.0182165,-1.10817
102,-0.001498,0.0182165,-1.10058
103,-0.001497,0.0182165,-1.09299
104,-0.001496,0.0182165,-1.0854
105,-0.001495,0.0197346,-1.07933
106,-0.001494,0.0166985,-1.07022
107,-0.001493,0.0151804,-1.06567
108,-0.001492,0.0151804,-1.05504
109,-0.001491,0.0151804,-1.04897
110,-0.00149,0.0151804,-1.0429
111,-0.001489,0.0106263,-1.03379
112,-0.001488,0.0121444,-1.02468
113,-0.001487,0.0121444,-1.01861
114,-0.001486,0.0106263,-1.0095
115,-0.001485,0.0121444,-1.00343
116,-0.001484,0.0121444,-0.994319
117,-0.001483,0.0106263,-0.986729
118,-0.001482,0.0106263,-0.979139
119,-0.001481,0.00910827,-0.971548
120,-0.00148,0.00910827,-0.96244
121,-0.001479,0.00759022,-0.956368
122,-0.001478,0.00759022,-0.945742
123,-0.001477,0.00455413,-0.938151
124,-0.001476,0.00607218,-0.930561
125,-0.001475,0.00607218,-0.918417
126,-0.001474,0.00607218,-0.912345
127,-0.001473,0.00607218,-0.904754
128,-0.001472,0.00607218,-0.894128
129,-0.001471,0.00455413,-0.886538
130,-0.00147,0.00455413,-0.878948
131,-0.001469,0.00151804,-0.869839
132,-0.001468,0.00303609,-0.862249
133,-0.001467,0.00151804,-0.853141
134,-0.001466,0,-0.845551
135,-0.001465,0,-0.834924
136,-0.001464,0,-0.825816
137,-0.001463,0,-0.816708
138,-0.001462,0,-0.809118
139,-0.001461,-0.00303609,-0.798491
140,-0.00146,-0.00303609,-0.790901
141,-0.001459,-0.00455413,-0.784829
142,-0.001458,-0.00455413,-0.774203
143,-0.001457,-0.00455413,-0.765094
144,-0.001456,-0.00607218,-0.754468
145,-0.001455,-0.00455413,-0.746878
146,-0.001454,-0.00759022,-0.73777
147,-0.001453,-0.00759022,-0.727143
148,-0.001452,-0.00910827,-0.718035
149,-0.001451,-0.00759022,-0.708927
150,-0.00145,-0.00910827,-0.699818
151,-0.001449,-0.00910827,-0.689192
152,-0.001448,-0.00759022,-0.680084
153,-0.001447,-0.00759022,-0.672494
154,-0.001446,-0.00607218,-0.661867
155,-0.001445,-0.00910827,-0.654277
156,-0.001444,-0.00910827,-0.646687
157,-0.001443,-0.00910827,-0.637579
158,-0.001442,-0.0121444,-0.62847
159,-0.001441,-0.0121444,-0.617844
160,-0.00144,-0.0121444,-0.610254
161,-0.001439,-0.0121444,-0.601146
162,-0.001438,-0.0121444,-0.592037
163,-0.001437,-0.0121444,-0.582929
164,-0.001436,-0.0121444,-0.573821
165,-0.001435,-0.0136624,-0.564712
166,-0.001434,-0.0166985,-0.55864
167,-0.001433,-0.0166985,-0.548014
168,-0.001432,-0.0166985,-0.537388
169,-0.001431,-0.0166985,-0.531316
170,-0.00143,-0.0197346,-0.520689
171,-0.001429,-0.0166985,-0.510063
172,-0.001428,-0.0197346,-0.502473
173,-0.001427,-0.0197346,-0.491846
174,-0.001426,-0.0197346,-0.48122
175,-0.001425,-0.0197346,-0.475148
176,-0.001424,-0.0182165,-0.464522
177,-0.001423,-0.0212526,-0.453895
178,-0.001422,-0.0212526,-0.444787
179,-0.001421,-0.0197346,-0.438715
180,-0.00142,-0.0227707,-0.42657
181,-0.001419,-0.0258068,-0.417462
182,-0.001418,-0.0258068,-0.406836
183,-0.001417,-0.0273248,-0.397728
184,-0.001416,-0.0273248,-0.387101
185,-0.001415,-0.0273248,-0.377993
186,-0.001414,-0.0273248,-0.370403
187,-0.001413,-0.0273248,-0.359776
188,-0.001412,-0.0258068,-0.350668
189,-0.001411,-0.0288428,-0.34156
190,-0.00141,-0.0303609,-0.332452
191,-0.001409,-0.0303609,-0.321825
192,-0.001408,-0.0288428,-0.311199
193,-0.001407,-0.0318789,-0.303609
194,-0.001406,-0.0318789,-0.292983
195,-0.001405,-0.033397,-0.280838
196,-0.001404,-0.033397,-0.27173
197,-0.001403,-0.033397,-0.262622
198,-0.001402,-0.0318789,-0.251995
199,-0.001401,-0.033397,-0.242887
200,-0.0014,-0.033397,-0.233779
201,-0.001399,-0.033397,-0.224671
202,-0.001398,-0.034915,-0.212526
203,-0.001397,-0.034915,-0.203418
204,-0.001396,-0.0364331,-0.19431
205,-0.001395,-0.0364331,-0.183683
206,-0.001394,-0.0394692,-0.174575
207,-0.001393,-0.0394692,-0.160913
208,-0.001392,-0.0394692,-0.151804
209,-0.001391,-0.0394692,-0.142696
210,-0.00139,-0.0394692,-0.13207
211,-0.001389,-0.0394692,-0.122962
212,-0.001388,-0.0394692,-0.112335
213,-0.001387,-0.0394692,-0.103227
214,-0.001386,-0.0425052,-0.0941187
215,-0.001385,-0.0440233,-0.0834924
216,-0.001384,-0.0440233,-0.0759022
217,-0.001383,-0.0425052,-0.0622398
218,-0.001382,-0.0455413,-0.0531316
219,-0.001381,-0.0485774,-0.0425052
220,-0.00138,-0.0485774,-0.0318789
221,-0.001379,-0.0485774,-0.0212526
222,-0.001378,-0.0500955,-0.0121444
223,-0.001377,-0.0455413,-0.00303609
224,-0.001376,-0.0455413,0.00759022
225,-0.001375,-0.0500955,0.0166985
226,-0.001374,-0.0485774,0.0273248
227,-0.001373,-0.0546496,0.0364331
228,-0.001372,-0.0516135,0.0470594
229,-0.001371,-0.0546496,0.0561676
230,-0.00137,-0.0531316,0.06983
231,-0.001369,-0.0546496,0.0774203
232,-0.001368,-0.0561676,0.0880466
233,-0.001367,-0.0546496,0.0986729
234,-0.001366,-0.0576857,0.107781
235,-0.001365,-0.0546496,0.121444
236,-0.001364,-0.0561676,0.129034
237,-0.001363,-0.0561676,0.13966
238,-0.001362,-0.0576857,0.148768
239,-0.001361,-0.0576857,0.157877
240,-0.00136,-0.0576857,0.168503
241,-0.001359,-0.0607218,0.180647
242,-0.001358,-0.0592037,0.191274
243,-0.001357,-0.0607218,0.198864
244,-0.001356,-0.0607218,0.212526
245,-0.001355,-0.0622398,0.221634
246,-0.001354,-0.0622398,0.232261
247,-0.001353,-0.0637579,0.242887
248,-0.001352,-0.0637579,0.253513
249,-0.001351,-0.0637579,0.262622
250,-0.00135,-0.0637579,0.27173
251,-0.001349,-0.0637579,0.283874
252,-0.001348,-0.0637579,0.292983
253,-0.001347,-0.0637579,0.303609
254,-0.001346,-0.0622398,0.312717
255,-0.001345,-0.0667939,0.323343
256,-0.001344,-0.0667939,0.332452
257,-0.001343,-0.0667939,0.34156
258,-0.001342,-0.0667939,0.353704
259,-0.001341,-0.0652759,0.362813
260,-0.00134,-0.06983,0.373439
261,-0.001339,-0.06983,0.382547
262,-0.001338,-0.06983,0.39621
263,-0.001337,-0.06983,0.4038
264,-0.001336,-0.06983,0.414426
265,-0.001335,-0.06983,0.425052
266,-0.001334,-0.06983,0.432643
267,-0.001333,-0.06983,0.443269
268,-0.001332,-0.06983,0.452377
269,-0.001331,-0.06983,0.463004
270,-0.00133,-0.06983,0.472112
271,-0.001329,-0.0743842,0.484256
272,-0.001328,-0.0743842,0.493364
273,-0.001327,-0.0743842,0.502473
274,-0.001326,-0.0743842,0.514617
275,-0.001325,-0.0728661,0.523725
276,-0.001324,-0.0774203,0.534352
277,-0.001323,-0.0774203,0.54346
278,-0.001322,-0.0789383,0.554086
279,-0.001321,-0.0759022,0.563194
280,-0.00132,-0.0774203,0.575339
281,-0.001319,-0.0774203,0.584447
282,-0.001318,-0.0774203,0.593555
283,-0.001317,-0.0774203,0.604182
284,-0.001316,-0.0759022,0.61329
285,-0.001315,-0.0774203,0.622398
286,-0.001314,-0.0804563,0.631506
287,-0.001313,-0.0759022,0.640615
288,-0.001312,-0.0804563,0.651241
289,-0.001311,-0.0804563,0.660349
290,-0.00131,-0.0804563,0.670976
291,-0.001309,-0.0804563,0.677048
292,-0.001308,-0.0804563,0.69071
293,-0.001307,-0.0804563,0.6983
294,-0.001306,-0.0850105,0.707409
295,-0.001305,-0.0819744,0.718035
296,-0.001304,-0.0850105,0.727143
297,-0.001303,-0.0819744,0.73777
298,-0.001302,-0.0834924,0.748396
299,-0.001301,-0.0819744,0.754468
300,-0.0013,-0.0850105,0.765094
301,-0.001299,-0.0834924,0.774203
302,-0.001298,-0.0834924,0.786347
303,-0.001297,-0.0834924,0.792419
304,-0.001296,-0.0834924,0.803045
305,-0.001295,-0.0834924,0.810636
306,-0.001294,-0.0819744,0.818226
307,-0.001293,-0.0865285,0.83037
308,-0.001292,-0.0865285,0.836442
309,-0.001291,-0.0880466,0.847069
310,-0.00129,-0.0880466,0.856177
311,-0.001289,-0.0880466,0.865285
312,-0.001288,-0.0880466,0.875912
313,-0.001287,-0.0880466,0.881984
314,-0.001286,-0.0865285,0.89261
315,-0.001285,-0.0910827,0.901718
316,-0.001284,-0.0910827,0.910827
317,-0.001283,-0.0910827,0.919935
318,-0.001282,-0.0895646,0.929043
319,-0.001281,-0.0895646,0.936633
320,-0.00128,-0.0910827,0.94726
321,-0.001279,-0.0910827,0.956368
322,-0.001278,-0.0910827,0.963958
323,-0.001277,-0.0880466,0.974584
324,-0.001276,-0.0910827,0.982175
325,-0.001275,-0.0910827,0.989765
326,-0.001274,-0.0910827,0.998873
327,-0.001273,-0.0895646,1.00798
328,-0.001272,-0.0895646,1.01709
329,-0.001271,-0.0895646,1.02468
330,-0.00127,-0.0895646,1.03075
331,-0.001269,-0.0895646,1.03986
332,-0.001268,-0.0926007,1.04745
333,-0.001267,-0.0926007,1.05808
334,-0.001266,-0.0926007,1.06567
335,-0.001265,-0.0926007,1.07478
336,-0.001264,-0.0926007,1.08085
337,-0.001263,-0.0926007,1.08996
338,-0.001262,-0.0926007,1.09755
339,-0.001261,-0.0926007,1.10514
340,-0.00126,-0.0926007,1.11121
341,-0.001259,-0.0926007,1.12032
342,-0.001258,-0.0971548,1.12942
343,-0.001257,-0.0971548,1.13702
344,-0.001256,-0.0971548,1.14461
345,-0.001255,-0.0971548,1.15371
346,-0.001254,-0.0971548,1.15979
347,-0.001253,-0.0971548,1.16889
348,-0.001252,-0.0971548,1.178
349,-0.001251,-0.0956368,1.18559
350,-0.00125,-0.100191,1.19166
351,-0.001249,-0.0956368,1.20077
352,-0.001248,-0.0971548,1.20685
353,-0.001247,-0.0971548,1.21595
354,-0.001246,-0.0956368,1.22203
355,-0.001245,-0.0986729,1.23113
356,-0.001244,-0.0971548,1.23569
357,-0.001243,-0.0971548,1.24631
358,-0.001242,-0.0971548,1.25087
359,-0.001241,-0.0971548,1.25694
360,-0.00124,-0.0971548,1.26605
361,-0.001239,-0.0971548,1.27212
362,-0.001238,-0.0956368,1.27819
363,-0.001237,-0.0986729,1.28427
364,-0.001236,-0.0971548,1.29186
365,-0.001235,-0.0971548,1.29793
366,-0.001234,-0.0956368,1.304
367,-0.001233,-0.0971548,1.31159
368,-0.001232,-0.100191,1.31766
369,-0.001231,-0.0956368,1.32373
370,-0.00123,-0.0971548,1.32981
371,-0.001229,-0.0971548,1.33892
372,-0.001228,-0.0971548,1.34195
373,-0.001227,-0.0971548,1.34954
374,-0.001226,-0.100191,1.35258
375,-0.001225,-0.100191,1.3632
376,-0.001224,-0.100191,1.36928
377,-0.001223,-0.100191,1.37535
378,-0.001222,-0.100191,1.38294
379,-0.001221,-0.100191,1.38901
380,-0.00122,-0.100191,1.39205
381,-0.001219,-0.100191,1.39964
382,-0.001218,-0.100191,1.40723
383,-0.001217,-0.100191,1.4133
384,-0.001216,-0.100191,1.41634
385,-0.001215,-0.0986729,1.42393
386,-0.001214,-0.103227,1.43
387,-0.001213,-0.0986729,1.43607
388,-0.001212,-0.100191,1.44214
389,-0.001211,-0.100191,1.44518
390,-0.00121,-0.100191,1.45277
391,-0.001209,-0.101709,1.45884
392,-0.001208,-0.101709,1.46188
393,-0.001207,-0.0986729,1.46795
394,-0.001206,-0.100191,1.47402
395,-0.001205,-0.100191,1.47858
396,-0.001204,-0.100191,1.48313
397,-0.001203,-0.101709,1.4892
398,-0.001202,-0.0986729,1.49527
399,-0.001201,-0.100191,1.49983
400,-0.0012,-0.100191,1.5059
401,-0.001199,-0.100191,1.51045
402,-0.001198,-0.100191,1.51349
403,-0.001197,-0.100191,1.51956
404,-0.001196,-0.101709,1.52563
405,-0.001195,-0.0986729,1.52867
406,-0.001194,-0.100191,1.53322
407,-0.001193,-0.100191,1.53778
408,-0.001192,-0.101709,1.54233
409,-0.001191,-0.101709,1.54841
410,-0.00119,-0.100191,1.55144
411,-0.001189,-0.100191,1.556
412,-0.001188,-0.101709,1.55903
413,-0.001187,-0.101709,1.56662
414,-0.001186,-0.100191,1.56966
415,-0.001185,-0.100191,1.57421
416,-0.001184,-0.100191,1.57725
417,-0.001183,-0.100191,1.5818
418,-0.001182,-0.100191,1.58484
419,-0.001181,-0.0986729,1.59091
420,-0.00118,-0.101709,1.59243
421,-0.001179,-0.100191,1.5985
422,-0.001178,-0.0971548,1.60154
423,-0.001177,-0.0971548,1.60457
424,-0.001176,-0.0956368,1.60609
425,-0.001175,-0.0986729,1.61065
426,-0.001174,-0.0986729,1.61368
427,-0.001173,-0.0956368,1.61672
428,-0.001172,-0.0971548,1.61975
429,-0.001171,-0.0971548,1.62279
430,-0.00117,-0.0956368,1.62583
431,-0.001169,-0.0986729,1.62734
432,-0.001168,-0.0971548,1.63038
433,-0.001167,-0.0971548,1.63493
434,-0.001166,-0.0971548,1.63645
435,-0.001165,-0.0971548,1.63949
436,-0.001164,-0.0971548,1.64101
437,-0.001163,-0.0956368,1.64404
438,-0.001162,-0.0986729,1.64708
439,-0.001161,-0.0971548,1.6486
440,-0.00116,-0.0971548,1.65163
441,-0.001159,-0.0971548,1.65315
442,-0.001158,-0.0971548,1.6577
443,-0.001157,-0.0956368,1.66074
444,-0.001156,-0.100191,1.66226
445,-0.001155,-0.0956368,1.66378
446,-0.001154,-0.0956368,1.66681
447,-0.001153,-0.0986729,1.66833
448,-0.001152,-0.0986729,1.67137
449,-0.001151,-0.0956368,1.67288
450,-0.00115,-0.0971548,1.67592
451,-0.001149,-0.0971548,1.67896
452,-0.001148,-0.0971548,1.68047
453,-0.001147,-0.0971548,1.68199
454,-0.001146,-0.0926007,1.68503
455,-0.001145,-0.0926007,1.68655
456,-0.001144,-0.0956368,1.68807
457,-0.001143,-0.0910827,1.68807
458,-0.001142,-0.0926007,1.68958
459,-0.001141,-0.0926007,1.68958
460,-0.00114,-0.0910827,1.69262
461,-0.001139,-0.0971548,1.69414
462,-0.001138,-0.0910827,1.69414
463,-0.001137,-0.0926007,1.69414
464,-0.001136,-0.0895646,1.69717
465,-0.001135,-0.0910827,1.69566
466,-0.001134,-0.0910827,1.69869
467,-0.001133,-0.0880466,1.69869
468,-0.001132,-0.0910827,1.69869
469,-0.001131,-0.0895646,1.69869
470,-0.00113,-0.0880466,1.69869
471,-0.001129,-0.0910827,1.70173
472,-0.001128,-0.0910827,1.69869
473,-0.001127,-0.0880466,1.70325
474,-0.001126,-0.0895646,1.70325
475,-0.001125,-0.0880466,1.70325
476,-0.001124,-0.0910827,1.70325
477,-0.001123,-0.0910827,1.70325
478,-0.001122,-0.0910827,1.70476
479,-0.001121,-0.0910827,1.70476
480,-0.00112,-0.0880466,1.70476
481,-0.001119,-0.0895646,1.70628
482,-0.001118,-0.0850105,1.70628
483,-0.001117,-0.0865285,1.70476
484,-0.001116,-0.0865285,1.70476
485,-0.001115,-0.0865285,1.70476
486,-0.001114,-0.0850105,1.70476
487,-0.001113,-0.0880466,1.70325
488,-0.001112,-0.0850105,1.70325
489,-0.001111,-0.0834924,1.70325
490,-0.00111,-0.0834924,1.70173
491,-0.001109,-0.0834924,1.70173
492,-0.001108,-0.0834924,1.69869
493,-0.001107,-0.0834924,1.69869
494,-0.001106,-0.0834924,1.69717
495,-0.001105,-0.0834924,1.69414
496,-0.001104,-0.0850105,1.69414
497,-0.001103,-0.0834924,1.69414
498,-0.001102,-0.0834924,1.69262
499,-0.001101,-0.0834924,1.69262
500,-0.0011,-0.0834924,1.6911
501,-0.001099,-0.0834924,1.68958
502,-0.001098,-0.0804563,1.68958
503,-0.001097,-0.0804563,1.68655
504,-0.001096,-0.0804563,1.68503
505,-0.001095,-0.0804563,1.68503
506,-0.001094,-0.0804563,1.68351
507,-0.001093,-0.0804563,1.68047
508,-0.001092,-0.0774203,1.67896
509,-0.001091,-0.0774203,1.67592
510,-0.00109,-0.0774203,1.67288
511,-0.001089,-0.0774203,1.67137
512,-0.001088,-0.0774203,1.66833
513,-0.001087,-0.0774203,1.66681
514,-0.001086,-0.0774203,1.66529
515,-0.001085,-0.0774203,1.66226
516,-0.001084,-0.0774203,1.65922
517,-0.001083,-0.0774203,1.65922
518,-0.001082,-0.0774203,1.6577
519,-0.001081,-0.0774203,1.65315
520,-0.00108,-0.0728661,1.65163
521,-0.001079,-0.0743842,1.65011
522,-0.001078,-0.0728661,1.64404
523,-0.001077,-0.0728661,1.64404
524,-0.001076,-0.0728661,1.64101
525,-0.001075,-0.0728661,1.63797
526,-0.001074,-0.068312,1.63493
527,-0.001073,-0.068312,1.63038
528,-0.001072,-0.068312,1.62431
529,-0.001071,-0.068312,1.62431
530,-0.00107,-0.06983,1.62127
531,-0.001069,-0.0667939,1.61824
532,-0.001068,-0.068312,1.6152
533,-0.001067,-0.068312,1.61216
534,-0.001066,-0.068312,1.60761
535,-0.001065,-0.068312,1.60457
536,-0.001064,-0.0667939,1.60154
537,-0.001063,-0.0652759,1.59698
538,-0.001062,-0.0637579,1.59395
539,-0.001061,-0.0667939,1.58939
540,-0.00106,-0.0637579,1.58484
541,-0.001059,-0.0637579,1.5818
542,-0.001058,-0.0637579,1.57573
543,-0.001057,-0.0637579,1.57421
544,-0.001056,-0.0637579,1.56966
545,-0.001055,-0.0607218,1.56207
546,-0.001054,-0.0622398,1.56055
547,-0.001053,-0.0622398,1.556
548,-0.001052,-0.0622398,1.55296
549,-0.001051,-0.0622398,1.54689
550,-0.00105,-0.0637579,1.54537
551,-0.001049,-0.0576857,1.54081
552,-0.001048,-0.0592037,1.53474
553,-0.001047,-0.0592037,1.53019
554,-0.001046,-0.0592037,1.52563
555,-0.001045,-0.0592037,1.52108
556,-0.001044,-0.0561676,1.51501
557,-0.001043,-0.0561676,1.51045
558,-0.001042,-0.0561676,1.5059
559,-0.001041,-0.0561676,1.50135
560,-0.00104,-0.0561676,1.49527
561,-0.001039,-0.0561676,1.49072
562,-0.001038,-0.0561676,1.48617
563,-0.001037,-0.0561676,1.48009
564,-0.001036,-0.0561676,1.47554
565,-0.001035,-0.0516135,1.4725
566,-0.001034,-0.0531316,1.46491
567,-0.001033,-0.0516135,1.46036
568,-0.001032,-0.0531316,1.45429
569,-0.001031,-0.0485774,1.44973
570,-0.00103,-0.0485774,1.44062
571,-0.001029,-0.0485774,1.43759
572,-0.001028,-0.0485774,1.43152
573,-0.001027,-0.0485774,1.42393
574,-0.001026,-0.0485774,1.41937
575,-0.001025,-0.0485774,1.4133
576,-0.001024,-0.0485774,1.40875
577,-0.001023,-0.0455413,1.40115
578,-0.001022,-0.0425052,1.3966
579,-0.001021,-0.0440233,1.39053
580,-0.00102,-0.0440233,1.38294
581,-0.001019,-0.0440233,1.3799
582,-0.001018,-0.0409872,1.37231
583,-0.001017,-0.0409872,1.36472
584,-0.001016,-0.0409872,1.35865
585,-0.001015,-0.0409872,1.35106
586,-0.001014,-0.0409872,1.34499
587,-0.001013,-0.0409872,1.33892
588,-0.001012,-0.0409872,1.33132
589,-0.001011,-0.0409872,1.32525
590,-0.00101,-0.0379511,1.3207
591,-0.001009,-0.0379511,1.31159
592,-0.001008,-0.0379511,1.304
593,-0.001007,-0.034915,1.29793
594,-0.001006,-0.0379511,1.29186
595,-0.001005,-0.033397,1.28427
596,-0.001004,-0.034915,1.27819
597,-0.001003,-0.034915,1.26909
598,-0.001002,-0.034915,1.26149
599,-0.001001,-0.034915,1.25542
600,-0.001,-0.034915,1.24935
601,-0.000999,-0.033397,1.24024
602,-0.000998,-0.033397,1.23417
603,-0.000997,-0.0303609,1.22962
604,-0.000996,-0.0318789,1.22051
605,-0.000995,-0.0303609,1.21292
